Chiolite (Na5Al3F14)	Al3F14Na5(l)
T(K)	Cp	S	-[G-H(Tr)]/T	H-H(Tr)	delta-f H	delta-f G	log Kf
0														
100														
200														
298.15	454.006	532.124	532.124	0.	-7497.408	-7130.832	1249.292
300	455.094	534.935	532.132	0.841	-7497.367	-7128.557	1241.192
400	499.570	672.402	550.572	48.732	-7507.644	-7004.995	914.759
500	525.092	786.767	586.704	100.031	-7503.309	-6879.797	718.727
600	542.665	884.124	628.363	153.456	-7497.486	-6755.621	588.129
650.000	549.778	927.848	649.737	180.772	GLASS <--> LIQUID
650.000	973.868	927.848	649.737	180.772	TRANSITION
700	973.868	1000.020	672.212	229.465	-7469.641	-6633.296	494.983
800	973.868	1130.062	721.496	326.852	-7421.008	-6517.144	425.526
900	973.868	1244.767	773.390	424.239	-7373.059	-6407.048	371.855
1000	973.868	1347.374	825.748	521.626	-7357.686	-6299.969	329.077
1010.000	973.868	1357.064	830.961	531.365	CRYSTAL <--> LIQUID
1100	973.868	1440.193	877.455	619.013	7310.405  6196.490 294.247
1200	973.868	1524.931	927.932	716.399	-7747.317	-6085.098	264.877
1300	973.868	1602.882	976.893	813.786	-7696.233	-5948.652	239.020
1400	973.868	1675.053	1024.216	911.173	-7645.300	-5816.135	217.003
1500	973.868	1742.243	1069.870	1008.560	-7594.505	-5687.253	198.048
1600	973.868	1805.095	1113.879	1105.947	-7543.838	-5561.756	181.573
1700	973.868	1864.136	1156.293	1203.333	-7493.288	-5439.424	167.133
1800	973.868	1919.800	1197.178	1300.720	-7442.840	-5320.064	154.384
1900	973.868	1972.455	1236.609	1398.107	-7392.479	-5203.508	143.054
2000	973.868	2022.408	1274.661	1495.494	-7342.185	-5089.599	132.927
2100	973.868	2069.923	1311.408	1592.880	-7291.938	-4978.207	123.826
2200	973.868	2115.227	1346.924	1690.267	-7241.715	-4869.206	115.610
2300	973.868	2158.517	1381.276	1787.654	-7191.493	-4762.488	108.160
2400	973.868	2199.965	1414.531	1885.041	-7141.249	-4657.956	101.378
2500	973.868	2239.720	1446.749	1982.428	-7090.962	-4555.519	95.182
2600	973.868	2277.916	1477.987	2079.814	-7040.610	-4455.095	89.504
2700	973.868	2314.670	1508.299	2177.201	-6990.174	-4356.609	84.284
2800	973.868	2350.087	1537.734	2274.588	-7821.342	-4257.091	79.417
2900	973.868	2384.261	1566.339	2371.975	-7767.406	-4130.747	74.403
3000	973.868	2417.277	1594.157	2469.362	-7713.346	-4006.267	69.755
