Cesium Chloride (CsCl)	Cl1Cs1(cr,l)
T(K)	Cp	S	-[G-H(Tr)]/T	H-H(Tr)	delta-f H	delta-f G	log Kf
0	9.146	3.540	INFINITE	-12.452	-442.979	-442.979	INFINITE
100	44.091	47.798	145.996	-9.820	-443.952	-433.786	226.587
200	50.128	80.726	105.914	-5.038	-443.369	-423.827	110.692
298.15	52.442	101.182	101.182	0.	-442.835	-414.360	72.594
300	52.472	101.506	101.183	0.097	-442.829	-414.183	72.116
400	54.685	116.906	103.267	5.455	-444.485	-404.011	52.758
500	56.902	129.347	107.277	11.035	-443.823	-393.965	41.157
600	59.099	139.916	111.858	16.835	-442.946	-384.072	33.436
700	61.296	149.191	116.541	22.855	-441.858	-374.343	27.934
743.000	62.237	152.873	118.538	25.511	ALPHA <--> BETA
743.000	63.388	157.941	118.538	29.276	TRANSITION
800	63.680	162.637	121.515	32.898	-436.758	-365.075	23.837
900	64.174	170.166	126.510	39.290	-435.321	-356.200	20.673
918.000	64.266	171.438	127.379	40.446	BETA <--> LIQUID
918.000	77.404	188.757	127.379	56.345	TRANSITION
1000	77.404	195.379	132.687	62.692	-484.013	-345.255	18.034
1100	77.404	202.757	138.727	70.433	-480.226	-331.563	15.745
1200	77.404	209.492	144.347	78.173	-476.446	-318.215	13.852
1300	77.404	215.688	149.600	85.914	-472.671	-305.182	12.262
1400	77.404	221.424	154.528	93.654	-468.902	-292.439	10.911
1500	77.404	226.764	159.168	101.394	-465.140	-279.966	9.749
1600	77.404	231.760	163.550	109.135	-461.386	-267.744	8.741
1700	77.404	236.452	167.702	116.875	-457.641	-255.756	7.858
1800	77.404	240.877	171.646	124.616	-453.909	-243.988	7.080
1900	77.404	245.062	175.400	132.356	-450.193	-232.427	6.390
2000	77.404	249.032	178.984	140.096	-446.498	-221.062	5.774
2100	77.404	252.808	182.410	147.837	-442.827	-209.880	5.220
2200	77.404	256.409	185.692	155.577	-439.186	-198.873	4.722
2300	77.404	259.850	188.842	163.318	-435.581	-188.030	4.270
2400	77.404	263.144	191.870	171.058	-432.019	-177.344	3.860
2500	77.404	266.304	194.785	178.798	-428.504	-166.805	3.485
2600	77.404	269.340	197.594	186.539	-425.045	-156.405	3.142
2700	77.404	272.261	200.306	194.279	-421.648	-146.138	2.827
2800	77.404	275.076	202.926	202.020	-418.318	-135.995	2.537
2900	77.404	277.792	205.461	209.760	-415.065	-125.970	2.269
3000	77.404	280.416	207.916	217.500	-411.893	-116.055	2.021
