Cobalt (Co)	Co1(ref)
T(K)	Cp	S	-[G-H(Tr)]/T	H-H(Tr)	delta-f H	delta-f G	log Kf
0	0.	0.	INFINITE	-4.771	0.	0.	0.
100	13.909	7.681	50.176	-4.249	0.	0.	0.
200	22.226	20.588	32.287	-2.340	0.	0.	0.
298.15	24.802	30.067	30.067	0.	0.	0.	0.
300	24.833	30.221	30.068	0.046	0.	0.	0.
400	26.527	37.597	31.062	2.614	0.	0.	0.
500	28.200	43.700	32.996	5.352	0.	0.	0.
600	29.665	48.973	35.229	8.246	0.	0.	0.
700	31.045	53.650	37.533	11.282	0.	0.	0.
700.100	31.047	53.655	37.535	11.285	ALPHA <--> BETA
700.100	30.583	54.300	37.535	11.737	TRANSITION
800	32.426	58.497	39.894	14.883	0.	0.	0.
900	34.518	62.433	42.181	18.227	0.	0.	0.
1000	36.987	66.194	44.396	21.799	0.	0.	0.
1100	39.832	69.849	46.544	25.635	0.	0.	0.
1200	43.221	73.445	48.636	29.771	0.	0.	0.
1300	48.660	77.110	50.685	34.354	0.	0.	0.
1394.000	54.978	80.719	52.587	39.215	Cp LAMBDA MAXIMUM
1394.000	54.999	80.719	52.587	39.215	TRANSITION
1400	44.225	80.930	52.708	39.511	0.	0.	0.
1500	39.748	83.794	54.688	43.659	0.	0.	0.
1600	38.284	86.307	56.587	47.552	0.	0.	0.
1700	37.782	88.608	58.404	51.347	0.	0.	0.
1768.000	37.990	90.092	59.594	53.921	BETA <--> LIQUID
1768.000	40.501	99.251	59.594	70.113	TRANSITION
1800	40.501	99.977	60.305	71.409	0.	0.	0.
1900	40.501	102.167	62.452	75.459	0.	0.	0.
2000	40.501	104.245	64.490	79.509	0.	0.	0.
2100	40.501	106.221	66.430	83.560	0.	0.	0.
2200	40.501	108.105	68.282	87.610	0.	0.	0.
2300	40.501	109.905	70.053	91.660	0.	0.	0.
2400	40.501	111.629	71.750	95.710	0.	0.	0.
2500	40.501	113.282	73.378	99.760	0.	0.	0.
2600	40.501	114.871	74.944	103.810	0.	0.	0.
2700	40.501	116.399	76.451	107.860	0.	0.	0.
2800	40.501	117.872	77.904	111.910	0.	0.	0.
2900	40.501	119.293	79.307	115.961	0.	0.	0.
3000	40.501	120.666	80.663	120.011	0.	0.	0.
3100	40.501	121.994	81.975	124.061	0.	0.	0.
3184.943	40.501	123.089	83.057	127.501	LIQUID <--> IDEAL GAS
3184.943	26.233	240.840	83.057	502.529	FUGACITY = 1 bar
3200	26.233	240.963	83.800	502.924	0.	0.	0.
3300	26.245	241.771	88.574	505.548	0.	0.	0.
3400	26.269	242.555	93.092	508.174	0.	0.	0.
3500	26.305	243.317	97.373	510.802	0.	0.	0.
3600	26.354	244.058	101.437	513.435	0.	0.	0.
3700	26.416	244.781	105.302	516.073	0.	0.	0.
3800	26.491	245.487	108.982	518.719	0.	0.	0.
3900	26.579	246.176	112.491	521.372	0.	0.	0.
4000	26.679	246.850	115.841	524.035	0.	0.	0.
4200	26.919	248.157	122.111	529.394	0.	0.	0.
4400	27.209	249.416	127.869	534.806	0.	0.	0.
4600	27.546	250.633	133.180	540.281	0.	0.	0.
4800	27.930	251.813	138.099	545.827	0.	0.	0.
5000	28.358	252.962	142.671	551.456	0.	0.	0.
5200	28.829	254.083	146.934	557.174	0.	0.	0.
5400	29.342	255.181	150.923	562.990	0.	0.	0.
5600	29.896	256.258	154.666	568.913	0.	0.	0.
5800	30.492	257.317	158.187	574.951	0.	0.	0.
6000	31.003	258.351	161.508	581.056	0.	0.	0.
