Strontium Fluoride (SrF2)	F2Sr1(cr,l)
T(K)	Cp	S	-[G-H(Tr)]/T	H-H(Tr)	delta-f H	delta-f G	log Kf
0	0.	0.	INFINITE	-13.075	-1214.807	-1214.807	INFINITE
100	36.671	21.017	137.682	-11.666	-1217.805	-1200.065	626.850
200	61.636	55.736	88.303	-6.513	-1218.070	-1182.045	308.718
298.15	69.985	82.123	82.123	0.	-1217.126	-1164.544	204.023
300	70.103	82.556	82.125	0.130	-1217.104	-1164.218	202.708
400	74.726	103.406	84.936	7.388	-1215.793	-1146.781	149.754
500	77.320	120.379	90.380	14.999	-1214.376	-1129.691	118.018
600	78.827	134.616	96.599	22.810	-1212.968	-1112.887	96.885
700	79.914	146.849	102.924	30.748	-1211.616	-1096.315	81.808
800	80.960	157.585	109.099	38.789	-1210.324	-1079.932	70.512
900	82.341	167.180	115.028	46.937	-1209.705	-1063.636	61.732
1000	85.772	176.024	120.691	55.334	-1208.031	-1047.493	54.715
1100	90.207	184.388	126.104	64.113	-1213.908	-1031.169	48.966
1200	97.069	192.513	131.300	73.455	-1212.258	-1014.624	44.165
1300	108.784	200.659	136.321	83.640	-1209.788	-998.246	40.110
1400	143.930	209.735	141.230	95.907	-1205.258	-982.123	36.643
1421.000	165.687	212.027	142.259	99.141	ALPHA <--> BETA
1421.000	165.268	212.027	142.259	99.141	TRANSITION
1484.000	165.268	219.197	145.374	109.553	UNDEFINED
1484.000	165.268	219.197	145.374	109.553	TRANSITION
1500	154.808	220.911	146.171	112.110	-1196.812	-966.475	33.656
1600	125.938	229.799	151.132	125.867	-1190.831	-951.330	31.058
1700	113.805	237.012	155.978	137.758	-1323.645	-935.314	28.739
1750.000	109.441	240.249	158.340	143.342	BETA <--> LIQUID
1750.000	99.048	257.205	158.340	173.015	TRANSITION
1800	99.048	259.996	161.125	177.968	-1289.381	-913.461	26.508
1900	99.048	265.351	166.471	187.872	-1285.440	-892.684	24.542
2000	99.048	270.431	171.543	197.777	-1281.516	-872.114	22.777
2100	99.048	275.264	176.368	207.682	-1277.610	-851.740	21.186
2200	99.048	279.872	180.969	217.587	-1273.722	-831.552	19.744
2300	99.048	284.275	185.365	227.492	-1269.856	-811.540	18.431
2400	99.048	288.490	189.575	237.396	-1266.014	-791.695	17.231
2500	99.048	292.533	193.613	247.301	-1262.199	-772.011	16.130
2600	99.048	296.418	197.493	257.206	-1258.416	-752.478	15.117
2700	99.048	300.156	201.226	267.111	-1254.671	-733.090	14.182
2800	99.048	303.758	204.824	277.015	-1250.970	-713.840	13.317
2900	99.048	307.234	208.296	286.920	-1247.320	-694.721	12.513
3000	99.048	310.592	211.650	296.825	-1243.729	-675.728	11.765
3100	99.048	313.840	214.895	306.730	-1240.204	-656.853	11.068
3200	99.048	316.984	218.036	316.635	-1236.754	-638.090	10.416
3300	99.048	320.032	221.081	326.539	-1233.386	-619.434	9.805
3400	99.048	322.989	224.035	336.444	-1230.108	-600.879	9.231
3500	99.048	325.860	226.903	346.349	-1226.929	-582.419	8.692
