Iron (Fe)	Fe1(l)
T(K)	Cp	S	-[G-H(Tr)]/T	H-H(Tr)	delta-f H	delta-f G	log Kf
0														
100														
200														
250														
298.15	25.096	34.763	34.763	0.	12.395	10.177	-1.783
300	25.142	34.918	34.764	0.046	12.395	10.163	-1.769
350	26.254	38.877	35.074	1.331	12.394	9.791	-1.461
400	27.384	42.457	35.776	2.672	12.393	9.419	-1.230
450	28.542	45.749	36.704	4.070	12.394	9.047	-1.050
500	29.702	48.816	37.763	5.526	12.395	8.675	-0.906
600	32.033	54.437	40.082	8.613	12.396	7.931	-0.690
700	34.363	59.550	42.503	11.933	12.389	7.187	-0.536
800	36.694	64.291	44.934	15.486	12.328	6.447	-0.421
900	39.024	68.747	47.334	19.272	12.085	5.724	-0.332
1000	41.355	72.980	49.689	23.291	11.356	5.049	-0.264
1100	43.689	77.031	51.992	27.543	9.966	4.501	-0.214
1200	46.024	80.932	54.242	32.028	9.362	4.014	-0.175
1200.000	46.024	80.932	54.242	32.028	GLASS <--> LIQUID
1200.000	46.024	80.932	54.242	32.028	TRANSITION
1300	46.024	84.616	56.438	36.631	10.521	3.521	-0.141
1400	46.024	88.027	58.574	41.233	11.596	2.941	-0.110
1500	46.024	91.202	60.645	45.836	12.588	2.288	-0.080
1600	46.024	94.172	62.649	50.438	13.495	1.571	-0.051
1700	46.024	96.963	64.586	55.040	13.370	0.819	-0.025
1800	46.024	99.593	66.458	59.643	13.776	0.069	-0.002
1809.000	46.024	99.823	66.624	60.057	DELTA <--> LIQUID
1900	46.024	102.082	68.268	64.245	0. 0. 0.
2000	46.024	104.442	70.019	68.848	0.	0.	0.
2100	46.024	106.688	71.712	73.450	0.	0.	0.
2200	46.024	108.829	73.351	78.052	0.	0.	0.
2300	46.024	110.875	74.938	82.655	0.	0.	0.
2400	46.024	112.834	76.476	87.257	0.	0.	0.
2500	46.024	114.712	77.968	91.860	0.	0.	0.
2600	46.024	116.517	79.417	96.462	0.	0.	0.
2700	46.024	118.254	80.823	101.064	0.	0.	0.
2800	46.024	119.928	82.190	105.667	0.	0.	0.
2900	46.024	121.543	83.519	110.269	0.	0.	0.
3000	46.024	123.103	84.813	114.872	0.	0.	0.
3100	46.024	124.613	86.073	119.474	0.	0.	0.
3133.345	46.024	125.105	86.485	121.009	FUGACITY = 1 bar
3200	46.024	126.074	87.300	124.076	348.300 7.424  0.121
3300	46.024	127.490	88.496	128.679	-346.399	18.511	-0.293
3400	46.024	128.864	89.664	133.281	-344.531	29.541	-0.454
3500	46.024	130.198	90.803	137.884	-342.697	40.516	-0.605
3600	46.024	131.495	91.915	142.486	-340.896	51.439	-0.746
3700	46.024	132.756	93.002	147.088	-339.131	62.313	-0.880
3800	46.024	133.983	94.064	151.691	-337.401	73.140	-1.005
3900	46.024	135.179	95.103	156.293	-335.707	83.921	-1.124
4000	46.024	136.344	96.120	160.896	-334.051	94.660	-1.236
