Strontium Hydroxide (Sr(OH)2)	H2O2Sr1(cr,l)
T(K)	Cp	S	-[G-H(Tr)]/T	H-H(Tr)	delta-f H	delta-f G	log Kf
0														
100														
200														
298.15	74.894	97.069	97.069	0.	-968.889	-881.098	154.365
300	75.145	97.533	97.070	0.139	-968.907	-880.553	153.318
400	88.450	120.970	100.176	8.318	-969.335	-851.006	111.130
500	101.755	142.137	106.481	17.828	-968.634	-821.482	85.820
600	115.018	161.859	114.083	28.666	-966.815	-792.204	68.967
700	128.323	180.589	122.256	40.833	-963.874	-763.319	56.960
783.150	139.370	195.601	129.251	51.963	CRYSTAL <--> LIQUID
783.150	157.737	222.442	129.251	72.983	TRANSITION
800	157.737	225.800	131.249	75.641	-938.495	-735.388	48.016
900	157.737	244.379	142.807	91.415	-932.976	-710.299	41.225
1000	157.737	260.998	153.810	107.188	-926.701	-685.895	35.827
1100	157.737	276.032	164.248	122.962	-928.412	-661.749	31.424
1200	157.737	289.757	174.144	138.736	-923.211	-637.737	27.760
1300	157.737	302.382	183.529	154.509	-918.088	-614.156	24.677
1400	157.737	314.072	192.441	170.283	-913.038	-590.966	22.049
1500	157.737	324.955	200.917	186.057	-908.060	-568.135	19.784
1600	157.737	335.135	208.991	201.830	-903.151	-545.634	17.813
1700	157.737	344.697	216.695	217.604	-1035.223	-522.258	16.047
1800	157.737	353.713	224.059	233.378	-1028.585	-492.276	14.285
1900	157.737	362.242	231.110	249.151	-1022.015	-462.660	12.719
2000	157.737	370.333	237.870	264.925	-1015.513	-433.389	11.319
