Lithium Silicate (Li2SiO3)	Li2O3Si1(l)
T(K)	Cp	S	-[G-H(Tr)]/T	H-H(Tr)	delta-f H	delta-f G	log Kf
0														
100														
200														
298.15	100.567	96.064	96.064	0.	-1625.231	-1539.171	269.656
300	101.010	96.688	96.066	0.186	-1625.254	-1538.637	267.901
400	118.826	128.398	100.268	11.252	-1625.968	-1509.633	197.138
500	127.809	155.924	108.716	23.604	-1632.348	-1479.892	154.603
600	134.306	179.818	118.619	36.720	-1632.314	-1449.396	126.181
700	139.649	200.930	128.898	50.422	-1631.792	-1418.944	105.883
800	144.432	219.897	139.108	64.632	-1630.889	-1388.595	90.666
900	148.565	237.151	149.057	79.285	-1629.689	-1358.378	78.838
1000	152.302	253.001	158.670	94.331	-1628.218	-1328.309	69.384
1000.000	152.302	253.001	158.670	94.331	GLASS <--> LIQUID
1000.000	167.360	253.001	158.670	94.331	TRANSITION
1100	167.360	268.952	167.982	111.067	-1625.164	-1298.466	61.659
1200	167.360	283.514	177.012	127.803	-1622.201	-1268.898	55.234
1300	167.360	296.910	185.726	144.539	-1619.325	-1239.573	49.807
1400	167.360	309.313	194.116	161.275	-1616.524	-1210.467	45.163
1474.000	167.360	317.933	200.118	173.660	CRYSTAL <--> LIQUID
1500	167.360	320.860	202.185	178.011	1613.789  1181.559 41.146
1600	167.360	331.661	209.944	194.747	-1611.119	-1152.831	37.636
1700	167.360	341.807	217.405	211.483	-1949.160	-1109.469	34.090
1800	167.360	351.373	224.584	228.219	-1944.879	-1060.199	30.766
1900	167.360	360.422	231.498	244.955	-1940.635	-1011.166	27.799
2000	167.360	369.006	238.160	261.691	-1936.429	-962.356	25.134
2100	167.360	377.172	244.587	278.427	-1932.264	-913.755	22.728
2200	167.360	384.957	250.792	295.163	-1928.141	-865.350	20.546
2300	167.360	392.397	256.788	311.899	-1924.060	-817.134	18.558
2400	167.360	399.519	262.588	328.635	-1920.026	-769.094	16.739
2500	167.360	406.351	268.203	345.371	-1916.040	-721.220	15.069
2600	167.360	412.915	273.643	362.107	-1912.104	-673.505	13.531
2700	167.360	419.232	278.919	378.843	-1908.221	-625.940	12.110
2800	167.360	425.318	284.040	395.579	-1904.393	-578.518	10.792
2900	167.360	431.191	289.013	412.315	-1900.623	-531.233	9.569
3000	167.360	436.865	293.848	429.051	-1896.915	-484.076	8.429
3100	167.360	442.352	298.550	445.787	-1893.268	-437.041	7.364
3200	167.360	447.666	303.127	462.523	-1889.688	-390.124	6.368
3300	167.360	452.816	307.586	479.259	-1886.174	-343.318	5.434
3400	167.360	457.812	311.931	495.995	-1882.730	-296.616	4.557
3500	167.360	462.663	316.169	512.731	-1879.358	-250.015	3.731
3600	167.360	467.378	320.304	529.467	-2260.212	-193.048	2.801
3700	167.360	471.964	324.341	546.203	-2256.576	-135.678	1.915
3800	167.360	476.427	328.285	562.939	-2253.020	-78.403	1.078
3900	167.360	480.774	332.139	579.675	-2249.546	-21.221	0.284
4000	167.360	485.011	335.908	596.411	-2246.155	35.871	-0.468
