Magnesium Titanium Oxide (Mg2TiO4)	Mg2O4Ti1(l)
T(K)	Cp	S	-[G-H(Tr)]/T	H-H(Tr)	delta-f H	delta-f G	log Kf
0														
100														
200														
298.15	128.574	172.412	172.412	0.	-2046.329	-1946.752	341.063
300	129.026	173.209	172.415	0.238	-2046.338	-1946.134	338.852
400	146.285	212.948	177.716	14.093	-2046.150	-1912.729	249.777
500	156.410	246.751	188.230	29.260	-2045.173	-1879.476	196.347
600	163.686	275.939	200.472	45.280	-2043.833	-1846.458	160.748
700	169.582	301.626	213.124	61.952	-2042.303	-1813.681	135.339
800	174.707	324.612	225.648	79.171	-2040.658	-1781.133	116.296
900	179.360	345.462	237.820	96.877	-2038.991	-1748.792	101.497
1000	183.686	364.585	249.553	115.032	-2054.594	-1715.209	89.593
1100	187.778	382.286	260.825	133.607	-2053.214	-1681.336	79.840
1200	191.690	398.793	271.642	152.581	-2055.694	-1647.475	71.713
1300	195.456	414.286	282.025	171.940	-2053.344	-1613.550	64.833
1400	199.091	428.905	291.999	191.668	-2305.581	-1573.481	58.707
1400.000	199.091	428.905	291.999	191.668	GLASS <--> LIQUID
1400.000	228.446	428.905	291.999	191.668	TRANSITION
1500	228.446	444.666	301.658	214.513	-2297.326	-1521.477	52.983
1600	228.446	459.410	311.061	237.357	-2289.228	-1470.019	47.991
1700	228.446	473.259	320.199	260.202	-2281.297	-1419.062	43.602
1800	228.446	486.317	329.069	283.047	-2273.545	-1368.568	39.715
1900	228.446	498.668	337.673	305.891	-2265.985	-1318.498	36.248
2000	228.446	510.386	346.018	328.736	-2273.315	-1268.368	33.126
2013.000	228.446	511.866	347.084	331.706	CRYSTAL <--> LIQUID
2100	228.446	521.532	354.113	351.580	2266.923  1218.278 30.303
2200	228.446	532.159	361.966	374.425	-2260.577	-1168.490	27.743
2300	228.446	542.314	369.588	397.270	-2254.277	-1118.992	25.413
2400	228.446	552.037	376.989	420.114	-2248.023	-1069.766	23.283
2500	228.446	561.362	384.179	442.959	-2241.816	-1020.800	21.328
2600	228.446	570.322	391.167	465.804	-2235.654	-972.081	19.529
2700	228.446	578.944	397.963	488.648	-2229.540	-923.598	17.868
2800	228.446	587.252	404.576	511.493	-2223.473	-875.340	16.330
2900	228.446	595.268	411.014	534.338	-2217.453	-827.300	14.901
3000	228.446	603.013	417.286	557.182	-2211.483	-779.465	13.572
3100	228.446	610.504	423.398	580.027	-2205.563	-731.828	12.331
3200	228.446	617.757	429.359	602.872	-2199.695	-684.383	11.171
3300	228.446	624.786	435.175	625.716	-2193.881	-637.120	10.085
3400	228.446	631.606	440.853	648.561	-2188.122	-590.031	9.065
3500	228.446	638.228	446.398	671.405	-2182.422	-543.113	8.106
3600	228.446	644.664	451.817	694.250	-2176.783	-496.355	7.202
3700	228.446	650.923	457.114	717.095	-2580.306	-441.966	6.239
3800	228.446	657.015	462.294	739.939	-2573.563	-384.261	5.282
3900	228.446	662.949	467.364	762.784	-2566.947	-326.734	4.376
4000	228.446	668.733	472.326	785.629	-2560.458	-269.377	3.518
