Beryllium Aluminum Oxide (BeAl2O4)	Al2Be1O4(l)
T(K)	Cp	S	-[G-H(Tr)]/T	H-H(Tr)	delta-f H	delta-f G	log Kf
0														
100														
200														
298.15	105.380	126.406	126.406	0.	-2163.842	-2059.526	360.820
300	105.940	127.060	126.408	0.195	-2163.876	-2058.879	358.483
400	130.280	161.162	130.892	12.108	-2164.764	-2023.701	264.268
500	145.250	191.969	140.086	25.942	-2164.416	-1988.456	207.733
600	154.970	219.367	151.061	40.983	-2163.431	-1953.350	170.054
700	161.750	243.783	162.595	56.832	-2162.179	-1918.434	143.155
800	166.830	265.727	174.139	73.271	-2160.872	-1883.703	122.993
900	170.870	285.618	185.438	90.163	-2159.665	-1849.131	107.321
1000	174.200	303.799	196.378	107.421	-2179.845	-1813.163	94.710
1100	177.030	320.538	206.914	124.986	-2178.419	-1776.562	84.362
1200	179.480	336.049	217.037	142.814	-2176.897	-1740.096	75.744
1300	181.670	350.503	226.754	160.873	-2175.299	-1703.761	68.458
1400	183.750	364.042	236.082	179.144	-2173.638	-1667.550	62.217
1450.000	184.800	370.508	240.606	188.358	GLASS <--> LIQUID
1450.000	246.409	370.508	240.606	188.358	TRANSITION
1500	246.409	378.862	245.076	200.679	-2168.857	-1631.514	56.814
1600	246.409	394.765	253.940	225.320	-2175.646	-1595.419	52.085
1700	246.409	409.703	262.668	249.960	-2167.637	-1559.400	47.915
1800	246.409	423.788	271.231	274.601	-2159.697	-1523.851	44.221
1900	246.409	437.110	279.615	299.242	-2151.827	-1488.741	40.928
2000	246.409	449.750	287.808	323.883	-2144.023	-1454.044	37.976
2100	246.409	461.772	295.808	348.524	-2136.288	-1419.736	35.314
2146.000	246.409	467.111	299.423	359.859	CRYSTAL <--> LIQUID
2200	246.409	473.235	303.614	373.165	2128.619  1385.793 32.903
2300	246.409	484.188	311.229	397.806	-2121.017	-1352.200	30.709
2400	246.409	494.675	318.656	422.447	-2113.480	-1318.935	28.706
2500	246.409	504.734	325.899	447.088	-2106.009	-1285.983	26.869
2600	246.409	514.399	332.964	471.729	-2098.603	-1253.328	25.180
2700	246.409	523.698	339.858	496.370	-2091.260	-1220.956	23.621
2800	246.409	532.660	346.584	521.011	-2962.738	-1180.698	22.026
2900	246.409	541.306	353.151	545.652	-2952.264	-1117.240	20.124
3000	246.409	549.660	359.562	570.293	-2941.834	-1054.141	18.354
3100	246.409	557.740	365.826	594.934	-2931.448	-991.388	16.705
3200	246.409	565.563	371.946	619.575	-2921.107	-928.972	15.164
3300	246.409	573.145	377.929	644.216	-2910.809	-866.877	13.722
3400	246.409	580.501	383.779	668.857	-2900.558	-805.093	12.369
3500	246.409	587.644	389.502	693.498	-2890.353	-743.611	11.098
3600	246.409	594.586	395.103	718.139	-2880.194	-682.419	9.902
3700	246.409	601.337	400.586	742.779	-2870.085	-621.510	8.774
3800	246.409	607.909	405.956	767.420	-2860.026	-560.871	7.710
3900	246.409	614.309	411.216	792.061	-2850.018	-500.497	6.703
4000	246.409	620.548	416.372	816.702	-2840.064	-440.380	5.751
