Beryllium Chloride (BeCl2)	Be1Cl2(l)
T(K)	Cp	S	-[G-H(Tr)]/T	H-H(Tr)	delta-f H	delta-f G	log Kf
0														
100														
200														
298.15	62.425	79.727	79.727	0.	-491.313	-445.758	78.095
300	62.593	80.114	79.728	0.116	-491.291	-445.475	77.564
400	68.701	99.012	82.263	6.700	-490.019	-430.392	56.203
460.100	71.356	108.819	85.103	10.912	GLASS <--> LIQUID
+	
460.100	121.420	108.819	85.103	10.912	TRANSITION
500	121.420	118.917	87.404	15.757	-486.636	-415.729	43.431
600	121.420	141.054	94.557	27.898	-480.393	-402.138	35.009
688.000	121.420	157.671	101.591	38.583	ALPHA <--> LIQUID
700	121.420	159.771	102.570	40.040	474.314  389.578 29.071
800	121.420	175.984	110.756	52.182	-468.369	-377.880	24.673
900	121.420	190.286	118.814	64.324	-462.540	-366.920	21.295
1000	121.420	203.078	126.612	76.466	-456.817	-356.603	18.627
1100	121.420	214.651	134.098	88.608	-451.197	-346.854	16.471
1200	121.420	225.216	141.257	100.750	-445.675	-337.613	14.696
1300	121.420	234.935	148.094	112.892	-440.250	-328.829	13.213
1400	121.420	243.933	154.623	125.034	-434.922	-320.458	11.956
1500	121.420	252.310	160.859	137.176	-429.692	-312.465	10.881
1600	121.420	260.146	166.822	149.318	-439.095	-304.293	9.934
1700	121.420	267.507	172.531	161.460	-433.660	-296.034	9.096
1800	121.420	274.447	178.002	173.602	-428.255	-288.095	8.360
1900	121.420	281.012	183.252	185.744	-422.881	-280.455	7.710
2000	121.420	287.240	188.297	197.886	-417.540	-273.097	7.133
