Lithium Chloride (LiCl)	Cl1Li1(l)
T(K)	Cp	S	-[G-H(Tr)]/T	H-H(Tr)	delta-f H	delta-f G	log Kf
0														
100														
200														
298.15	48.028	78.435	78.435	0.	-390.755	-372.214	65.210
300	48.095	78.732	78.436	0.089	-390.743	-372.099	64.788
400	50.969	92.989	80.360	5.051	-390.117	-365.980	47.792
500	53.342	104.621	84.084	10.269	-392.618	-359.700	37.578
588.000	55.239	113.421	87.830	15.048	GLASS <--> LIQUID
588.000	67.807	113.421	87.830	15.048	TRANSITION
600	67.693	114.790	88.355	15.861	-391.825	-353.174	30.747
700	66.747	125.154	92.893	22.583	-389.864	-346.888	25.885
800	65.802	134.005	97.492	29.210	-387.983	-340.878	22.257
883.000	65.015	140.463	101.233	34.639	CRYSTAL <--> LIQUID
900	64.856	141.701	101.986	35.743	386.201  335.098 19.449
1000	63.911	148.485	106.304	42.182	-384.517	-329.511	17.212
1100	62.965	154.532	110.418	48.525	-382.929	-324.088	15.390
1200	62.015	159.970	114.325	54.774	-381.437	-318.806	13.877
1300	61.070	164.897	118.028	60.929	-380.041	-313.644	12.602
1400	60.124	169.388	121.539	66.988	-378.739	-308.586	11.513
1500	59.165	173.503	124.868	72.953	-377.527	-303.618	10.573
1600	58.216	177.291	128.028	78.822	-376.408	-298.727	9.752
1700	57.284	180.793	131.030	84.597	-520.614	-286.728	8.810
1800	56.346	184.040	133.886	90.278	-518.922	-273.020	7.923
1900	55.403	187.062	136.606	95.866	-517.330	-259.402	7.131
2000	54.455	189.879	139.200	101.359	-515.839	-245.866	6.421
