Lithium Titanium Oxide (Li2TiO3)	Li2O3Ti1(l)
T(K)	Cp	S	-[G-H(Tr)]/T	H-H(Tr)	delta-f H	delta-f G	log Kf
0														
100														
200														
298.15	109.855	147.656	147.656	0.	-1566.760	-1492.523	261.484
300	110.750	148.338	147.658	0.204	-1566.775	-1492.062	259.791
400	127.361	182.520	152.209	12.124	-1567.127	-1467.084	191.582
500	135.645	211.903	161.289	25.307	-1573.138	-1441.460	150.588
600	141.503	237.183	171.880	39.182	-1572.795	-1415.149	123.200
700	145.854	259.337	182.824	53.559	-1572.038	-1388.930	103.643
800	149.034	279.031	193.642	68.311	-1571.009	-1362.840	88.984
900	151.670	296.740	204.130	83.349	-1569.852	-1336.887	77.591
1000	153.888	312.837	214.208	98.628	-1568.659	-1311.066	68.483
1100	155.812	327.597	223.855	114.117	-1567.511	-1285.363	61.037
1200	157.318	341.223	233.075	129.778	-1570.420	-1259.641	54.831
1214.000	157.569	343.049	234.333	131.982	GLASS <--> LIQUID
1214.000	200.832	343.049	234.333	131.982	TRANSITION
1300	200.832	356.795	241.984	149.253	-1565.044	-1233.940	49.580
1400	200.832	371.678	250.723	169.336	-1559.172	-1208.691	45.097
1500	200.832	385.534	259.254	189.420	-1553.416	-1183.859	41.226
1600	200.832	398.495	267.556	209.503	-1547.787	-1159.406	37.851
1700	200.832	410.671	275.620	229.586	-1832.769	-1120.948	34.443
1800	200.832	422.150	283.445	249.669	-1825.924	-1079.275	31.320
1820.000	200.832	424.369	284.965	253.716	BETA <--> LIQUID
1900	200.832	433.008	291.033	269.752	1819.262  1037.977 28.536
2000	200.832	443.310	298.392	289.836	-1827.482	-996.572	26.028
2100	200.832	453.108	305.528	309.919	-1821.974	-955.162	23.758
2200	200.832	462.451	312.450	330.002	-1816.507	-914.012	21.701
2300	200.832	471.378	319.167	350.085	-1811.084	-873.112	19.829
2400	200.832	479.926	325.689	370.168	-1805.706	-832.447	18.118
2500	200.832	488.124	332.023	390.252	-1800.377	-792.004	16.548
2600	200.832	496.001	338.180	410.335	-1795.098	-751.773	15.103
2700	200.832	503.580	344.166	430.418	-1789.872	-711.744	13.770
2800	200.832	510.884	349.991	450.501	-1784.701	-671.908	12.535
2900	200.832	517.931	355.661	470.584	-1779.588	-632.257	11.388
3000	200.832	524.740	361.184	490.668	-1774.536	-592.780	10.321
3100	200.832	531.325	366.567	510.751	-1769.547	-553.470	9.326
3200	200.832	537.701	371.816	530.834	-1764.623	-514.321	8.395
3300	200.832	543.881	376.937	550.917	-1759.766	-475.325	7.524
3400	200.832	549.877	381.935	571.000	-1754.979	-436.474	6.706
3500	200.832	555.698	386.817	591.084	-1750.265	-397.763	5.936
3600	200.832	561.356	391.587	611.167	-1745.624	-359.186	5.212
3700	200.832	566.859	396.250	631.250	-2150.157	-312.949	4.418
3800	200.832	572.214	400.811	651.333	-2144.436	-263.371	3.620
3900	200.832	577.431	405.273	671.416	-2138.850	-213.942	2.865
4000	200.832	582.516	409.641	691.500	-2133.402	-164.655	2.150
