Magnesium Titanium Oxide (MgTiO3)	Mg1O3Ti1(l)
T(K)	Cp	S	-[G-H(Tr)]/T	H-H(Tr)	delta-f H	delta-f G	log Kf
0														
100														
200														
298.15	91.881	111.082	111.082	0.	-1497.631	-1420.091	248.794
300	92.203	111.651	111.083	0.170	-1497.635	-1419.610	247.176
400	105.244	140.132	114.878	10.102	-1497.329	-1393.623	181.988
500	113.123	164.524	122.429	21.047	-1496.378	-1367.797	142.893
600	118.453	185.647	131.245	32.641	-1495.117	-1342.196	116.849
700	122.353	204.213	140.370	44.690	-1493.710	-1316.819	98.262
800	125.382	220.756	149.403	57.082	-1492.236	-1291.649	84.336
900	127.846	235.670	158.173	69.747	-1490.789	-1266.664	73.515
1000	129.938	249.251	166.612	82.639	-1498.067	-1241.121	64.829
1100	131.775	261.723	174.699	95.726	-1496.990	-1215.479	57.718
1200	133.432	273.261	182.438	108.987	-1499.977	-1189.811	51.791
1300	134.972	284.003	189.842	122.409	-1498.342	-1164.030	46.771
1300.000	134.972	284.003	189.842	122.409	GLASS <--> LIQUID
1300.000	163.176	284.003	189.842	122.409	TRANSITION
1400	163.176	296.095	197.005	138.726	-1621.344	-1135.313	42.359
1500	163.176	307.353	203.991	155.044	-1615.717	-1100.794	38.333
1600	163.176	317.884	210.784	171.361	-1610.233	-1066.645	34.822
1700	163.176	327.777	217.378	187.679	-1604.905	-1032.835	31.735
1800	163.176	337.104	223.772	203.997	-1599.743	-999.334	29.000
1900	163.176	345.926	229.971	220.314	-1594.761	-966.115	26.560
1953.000	163.176	350.416	233.179	228.963	CRYSTAL <--> LIQUID
2000	163.176	354.296	235.980	236.632	1604.658  932.699 24.360
2100	163.176	362.258	241.805	252.949	-1600.822	-899.195	22.366
2200	163.176	369.848	247.454	269.267	-1597.019	-865.873	20.558
2300	163.176	377.102	252.935	285.585	-1593.251	-832.724	18.912
2400	163.176	384.047	258.254	301.902	-1589.518	-799.738	17.406
2500	163.176	390.708	263.420	318.220	-1585.818	-766.907	16.024
2600	163.176	397.108	268.439	334.537	-1582.152	-734.223	14.751
2700	163.176	403.266	273.320	350.855	-1578.520	-701.679	13.575
2800	163.176	409.200	278.067	367.173	-1574.922	-669.269	12.485
2900	163.176	414.926	282.688	383.490	-1571.357	-636.988	11.473
3000	163.176	420.458	287.189	399.808	-1567.828	-604.829	10.531
3100	163.176	425.809	291.575	416.125	-1564.332	-572.786	9.651
3200	163.176	430.989	295.851	432.443	-1560.871	-540.857	8.829
3300	163.176	436.011	300.023	448.761	-1557.446	-509.035	8.057
3400	163.176	440.882	304.094	465.078	-1554.057	-477.315	7.333
3500	163.176	445.612	308.070	481.396	-1550.706	-445.695	6.652
3600	163.176	450.209	311.955	497.713	-1547.392	-414.170	6.009
3700	163.176	454.680	315.752	514.031	-1953.217	-374.949	5.293
3800	163.176	459.031	319.466	530.349	-1948.749	-332.352	4.568
3900	163.176	463.270	323.099	546.666	-1944.379	-289.872	3.882
4000	163.176	467.401	326.655	562.984	-1940.107	-247.504	3.232
