Molybdenum Sulfide (Mo2S3)	Mo2S3(l)
T(K)	Cp	S	-[G-H(Tr)]/T	H-H(Tr)	delta-f H	delta-f G	log Kf
0														
100														
200														
298.15	109.294	181.170	181.170	0.	-270.304	-278.590	48.808
300	109.489	181.847	181.172	0.202	-270.316	-278.641	48.516
400	117.464	214.533	185.575	11.583	-277.637	-281.052	36.702
500	122.926	241.358	194.129	23.615	-282.487	-281.374	29.395
600	127.399	264.175	203.948	36.136	-285.953	-280.802	24.446
700	131.405	284.119	214.006	49.079	-288.396	-279.740	20.874
800	135.162	301.913	223.901	62.409	-290.142	-278.377	18.176
900	138.775	318.042	233.479	76.107	-450.748	-273.586	15.878
1000	142.297	332.846	242.685	90.161	-447.887	-254.052	13.270
1100	145.762	346.572	251.513	104.564	-444.824	-234.816	11.150
1200	149.186	359.402	259.975	119.312	-441.574	-215.866	9.396
1300	152.582	371.477	268.092	134.401	-438.155	-197.195	7.923
1400	155.957	382.908	275.889	149.828	-434.582	-178.792	6.671
1450.000	157.639	388.410	279.674	157.668	GLASS <--> LIQUID
1450.000	156.900	388.410	279.674	157.668	TRANSITION
1500	156.900	393.730	283.388	165.513	-430.947	-160.649	5.594
1600	156.900	403.856	290.604	181.203	-427.516	-142.743	4.660
1700	156.900	413.368	297.548	196.893	-424.305	-125.044	3.842
1800	156.900	422.336	304.234	212.583	-421.327	-107.527	3.120
1900	156.900	430.819	310.676	228.273	-418.594	-90.170	2.479
2000	156.900	438.867	316.886	243.963	-416.121	-72.949	1.905
2080.000	156.900	445.021	321.696	256.515	CRYSTAL <--> LIQUID
2100	156.900	446.522	322.878	259.653	413.922  55.846 1.389
2200	156.900	453.821	328.665	275.343	-412.011	-38.841	0.922
2300	156.900	460.796	334.260	291.033	-410.406	-21.915	0.498
2400	156.900	467.473	339.672	306.723	-409.124	-5.053	0.110
2500	156.900	473.878	344.913	322.413	-408.188	11.763	-0.246
2600	156.900	480.032	349.992	338.103	-407.636	28.548	-0.574
2700	156.900	485.953	354.919	353.793	-407.546	45.321	-0.877
2800	156.900	491.659	359.701	369.483	-408.042	62.101	-1.159
2900	156.900	497.165	364.347	385.173	-481.053	79.010	-1.423
3000	156.900	502.484	368.863	400.863	-479.131	98.290	-1.711
3100	156.900	507.629	373.257	416.553	-477.222	117.506	-1.980
3200	156.900	512.610	377.535	432.243	-475.327	136.660	-2.231
3300	156.900	517.439	381.701	447.933	-473.444	155.756	-2.465
3400	156.900	522.122	385.763	463.623	-471.573	174.794	-2.685
3500	156.900	526.671	389.724	479.313	-469.716	193.778	-2.892
