Nickel Sulfide (Ni3S2)	Ni3S2(l)
T(K)	Cp	S	-[G-H(Tr)]/T	H-H(Tr)	delta-f H	delta-f G	log Kf
0														
100														
200														
298.15	117.738	215.930	215.930	0.	-143.926	-162.473	28.465
300	117.947	216.659	215.932	0.218	-143.937	-162.588	28.309
400	127.110	251.900	220.675	12.490	-149.043	-168.534	22.008
500	133.972	281.018	229.914	25.552	-152.739	-173.006	18.074
600	139.913	305.975	240.560	39.249	-156.045	-176.745	15.387
700	145.436	327.963	251.505	53.520	-158.436	-179.966	13.429
760.000	148.549	340.051	258.024	62.341	GLASS <--> LIQUID
760.000	191.795	340.051	258.024	62.341	TRANSITION
800	191.795	349.889	262.373	70.012	-157.626	-183.018	11.950
900	191.795	372.479	273.377	89.192	-260.348	-184.242	10.693
1000	191.795	392.686	284.315	108.371	-254.450	-176.104	9.199
1062.000	191.795	404.224	290.982	120.263	II <--> LIQUID
1100	191.795	410.966	295.011	127.551	248.784  168.546 8.004
1200	191.795	427.655	305.379	146.730	-243.368	-161.493	7.030
1300	191.795	443.006	315.383	165.910	-238.222	-154.880	6.223
1400	191.795	457.220	325.013	185.089	-233.365	-148.654	5.546
1500	191.795	470.452	334.273	204.269	-228.808	-142.764	4.971
1600	191.795	482.830	343.175	223.448	-224.564	-137.168	4.478
1700	191.795	494.458	351.736	242.628	-220.648	-131.827	4.051
1800	191.795	505.421	359.972	261.807	-268.516	-124.563	3.615
1900	191.795	515.790	367.903	280.987	-264.989	-116.662	3.207
2000	191.795	525.628	375.545	300.166	-261.486	-108.946	2.845
2100	191.795	534.986	382.917	319.345	-258.004	-101.404	2.522
2200	191.795	543.908	390.033	338.525	-254.543	-94.028	2.233
2300	191.795	552.434	396.910	357.704	-251.101	-86.809	1.972
2400	191.795	560.596	403.562	376.884	-247.677	-79.740	1.735
2500	191.795	568.426	410.001	396.063	-244.268	-72.812	1.521
2600	191.795	575.948	416.240	415.243	-240.874	-66.021	1.326
2700	191.795	583.187	422.290	434.422	-237.491	-59.360	1.148
2800	191.795	590.162	428.161	453.602	-234.121	-52.825	0.985
2900	191.795	596.892	433.864	472.781	-230.762	-46.409	0.836
3000	191.795	603.394	439.407	491.961	-227.413	-40.109	0.698
3100	191.795	609.683	444.799	511.140	-224.074	-33.921	0.572
3200	191.795	615.772	450.048	530.319	-1351.248	-12.274	0.200
3300	191.795	621.674	455.159	549.499	-1342.966	29.440	-0.466
3400	191.795	627.400	460.141	568.678	-1334.689	70.904	-1.089
3500	191.795	632.959	465.000	587.858	-1326.421	112.125	-1.673
3600	191.795	638.362	469.741	607.037	-1318.162	153.109	-2.222
3700	191.795	643.617	474.370	626.217	-1309.915	193.864	-2.737
3800	191.795	648.732	478.891	645.396	-1301.683	234.397	-3.222
