Tungsten Oxide (WO2.96)	O2.96W1(cr)
T(K)	Cp	S	-[G-H(Tr)]/T	H-H(Tr)	delta-f H	delta-f G	log Kf
0														
100														
200														
298.15	72.383	74.894	74.894	0.000	-834.959	-757.027	132.628
300	72.634	75.342	74.895	0.134	-834.950	-756.544	131.726
400	81.504	97.478	77.852	7.850	-834.095	-730.517	95.396
500	87.864	116.394	83.716	16.339	-832.648	-704.781	73.628
600	92.257	132.825	90.562	25.358	-830.863	-679.371	59.145
700	95.312	147.287	97.653	34.744	-828.895	-654.276	48.823
800	97.404	160.156	104.677	44.384	-826.838	-629.471	41.100
900	99.370	171.735	111.495	54.216	-824.734	-604.925	35.109
1000	100.709	182.264	118.053	64.211	-822.598	-580.616	30.328
1100	102.215	191.936	124.336	74.359	-820.421	-556.523	26.427
1200	103.512	200.886	130.347	84.647	-818.211	-532.630	23.185
1300	104.851	209.224	136.097	95.065	-815.965	-508.922	20.449
1400	106.106	217.041	141.603	105.613	-813.681	-485.389	18.110
1500	107.194	224.399	146.880	116.278	-811.368	-462.020	16.089
1600	108.282	231.351	151.944	127.052	-809.032	-438.806	14.326
1700	109.537	237.954	156.811	137.943	-806.662	-415.740	12.774
1800	110.792	244.250	161.495	148.959	-804.249	-392.814	11.399
1900	112.048	250.274	166.010	160.101	-801.794	-370.023	10.173
2000	113.303	256.053	170.369	171.369	-799.296	-347.363	9.072
2100	114.558	261.612	174.582	182.762	-796.755	-324.828	8.080
2200	115.813	266.970	178.660	194.280	-794.172	-302.415	7.180
2300	117.068	272.145	182.613	205.924	-791.546	-280.122	6.362
2400	118.324	277.154	186.449	217.694	-788.877	-257.944	5.614
2500	119.579	282.010	190.174	229.589	-786.165	-235.877	4.928
2600	120.834	286.724	193.798	241.610	-783.406	-213.920	4.298
2700	122.089	291.308	197.325	253.756	-780.627	-192.069	3.716
2800	123.344	295.771	200.761	266.028	-777.862	-170.321	3.177
2900	124.600	300.121	204.113	278.425	-775.148	-148.672	2.678
3000	125.855	304.367	207.384	290.948	-772.513	-127.114	2.213
