Silicon (Si)	Si1(l)
T(K)	Cp	S	-[G-H(Tr)]/T	H-H(Tr)	delta-f H	delta-f G	log Kf
0														
100														
200														
250														
298.15	27.196	44.460	44.460	0.	48.470	40.826	-7.152
300	27.196	44.628	44.461	0.050	48.483	40.778	-7.100
350	27.196	48.821	44.792	1.410	48.808	39.467	-5.890
400	27.196	52.452	45.527	2.770	49.082	38.114	-4.977
450	27.196	55.655	46.478	4.130	49.317	36.728	-4.263
500	27.196	58.521	47.542	5.490	49.523	35.318	-3.690
600	27.196	63.479	49.797	8.209	49.867	32.443	-2.824
700	27.196	67.671	52.059	10.929	50.139	29.517	-2.203
800	27.196	71.303	54.243	13.648	50.349	26.556	-1.734
900	27.196	74.506	56.320	16.368	50.507	23.572	-1.368
1000	27.196	77.372	58.284	19.088	50.616	20.573	-1.075
1100	27.196	79.964	60.139	21.807	50.679	17.565	-0.834
1200	27.196	82.330	61.891	24.527	50.700	14.554	-0.634
1300	27.196	84.507	63.548	27.246	50.679	11.542	-0.464
1400	27.196	86.522	65.118	29.966	50.616	8.534	-0.318
1500	27.196	88.399	66.608	32.686	50.512	5.531	-0.193
1600	27.196	90.154	68.026	35.405	50.365	2.537	-0.083
1685.000	27.196	91.562	69.178	37.717	CRYSTAL <--> LIQUID
1700	27.196	91.803	69.376	38.125	0. 0. 0.
1800	27.196	93.357	70.666	40.844	0.	0.	0.
1900	27.196	94.827	71.899	43.564	0.	0.	0.
2000	27.196	96.222	73.081	46.284	0.	0.	0.
2100	27.196	97.549	74.215	49.003	0.	0.	0.
2200	27.196	98.814	75.304	51.723	0.	0.	0.
2300	27.196	100.023	76.353	54.442	0.	0.	0.
2400	27.196	101.181	77.363	57.162	0.	0.	0.
2500	27.196	102.291	78.338	59.882	0.	0.	0.
2600	27.196	103.358	79.280	62.601	0.	0.	0.
2700	27.196	104.384	80.191	65.321	0.	0.	0.
2800	27.196	105.373	81.073	68.040	0.	0.	0.
2900	27.196	106.327	81.928	70.760	0.	0.	0.
3000	27.196	107.249	82.756	73.480	0.	0.	0.
3100	27.196	108.141	83.561	76.199	0.	0.	0.
3200	27.196	109.005	84.343	78.919	0.	0.	0.
3300	27.196	109.842	85.103	81.638	0.	0.	0.
3400	27.196	110.653	85.842	84.358	0.	0.	0.
3500	27.196	111.442	86.562	87.078	0.	0.	0.
3504.616	27.196	111.478	86.595	87.203	FUGACITY = 1 bar
3600	27.196	112.208	87.264	89.797	384.152 10.461  0.152
3700	27.196	112.953	87.949	92.517	-383.738	21.417	-0.302
3800	27.196	113.678	88.616	95.236	-383.326	32.361	-0.445
3900	27.196	114.385	89.268	97.956	-382.915	43.295	-0.580
4000	27.196	115.073	89.904	100.676	-382.505	54.218	-0.708
4100	27.196	115.745	90.526	103.395	-382.096	65.131	-0.830
4200	27.196	116.400	91.135	106.115	-381.687	76.034	-0.946
4300	27.196	117.040	91.730	108.834	-381.279	86.927	-1.056
4400	27.196	117.665	92.312	111.554	-380.871	97.811	-1.161
4500	27.196	118.277	92.882	114.274	-380.462	108.686	-1.262
